(mbar)    (K)
0.35      130.6
0.40      130.1
0.45      130.2
0.50      129.8
0.56      128.7
0.63      127.8
0.71      127.1
0.79      126.2
0.89      125.0
1.00      123.9
1.12      122.9
1.26      121.5
1.41      119.6
1.58      117.1
1.78      114.6
2.00      112.3
2.24      109.9
2.51      106.9
2.82      103.2
3.16      100.4
3.55      97.6
3.98      94.4
4.47      90.9
5.01      87.4
5.62      84.1
6.31      80.9
7.08      77.7
7.94      74.9
8.91      72.3
10.00     69.7
11.22     67.6
12.59     65.9
14.13     64.3
15.85     62.8
17.78     61.5
19.95     60.4
22.39     59.2
25.12     58.3
28.18     57.5
31.62     56.7
35.48     56.0
39.81     55.3
44.67     54.7
50.12     54.1
56.23     53.6
63.10     53.2
70.79     52.7
79.43     52.5
89.13     52.1
100.00    51.8
112.20    51.8
125.89    51.7
141.25    51.7
158.49    51.8
177.83    52.1
199.53    52.3
223.87    52.6
251.19    53.1
281.84    53.6
316.23    54.3
354.81    55.1
398.11    56.0
446.68    57.2
501.19    58.8
562.34    60.6
630.96    62.4
707.95    64.3
794.33    66.4
891.25    68.7
1000.00   71.5
1122.02   74.5
1258.93   77.9
1298.48   78.7
1584.89   85.8
1778.28   90.3
1995.26   94.4
2238.72   98.4
2308.81   99.4
2818.38   106.3
3162.28   110.4
3548.13   114.5
3981.07   118.7
4466.84   122.9
5011.87   127.2
5623.41   131.2
6267.92   135.0
